# This data was collected and compiled at the NASA/Ames Research Center, Moffett Field, CA.  Any use of this data should recognize the parent publication:

# D.M. Hudgins, S.A. Sandford, L.J. Allamandola, and A.G.G.M. Tielens, "Mid- and Far-Infrared Spectroscopy of Ices: Optical Constants and Integrated Absorbances", The Astrophysical Journal Supplement Series, 86, no. 2, p. 713-870, 1993

# H2O - 10 K
# http://www.astrochem.org/data/H2O.php

Freq.	%T,10K	Freq. 	n, 10K	k, 10K
#(cm-1)			(cm-1)
50.153	100.03	50.153	1.7329	0.0000
51.117	100.05	52.082	1.7322	0.019900
52.082	99.929	54.011	1.7355	0.0000
53.046	100.05	55.940	1.7439	0.017200
54.011	100.02	57.869	1.7426	0.019200
54.975	99.992	59.798	1.7331	0.036300
55.940	99.933	61.727	1.7325	0.0000
56.904	99.898	63.656	1.7486	0.0000
57.869	99.923	65.585	1.7683	0.0000
58.833	99.791	67.514	1.7844	0.023800
59.798	99.853	69.442	1.7788	0.058500
60.762	99.745	71.371	1.7654	0.059500
61.727	99.999	73.300	1.7653	0.047700
62.691	99.928	75.229	1.7651	0.067600
63.656	100.00	77.158	1.7499	0.075400
64.620	99.845	79.087	1.7630	0.020500
65.585	100.02	81.016	1.7712	0.087500
66.549	99.847	82.945	1.7539	0.070900
67.514	99.885	84.874	1.7558	0.054000
68.478	99.717	86.803	1.7704	0.043700
69.442	99.718	88.732	1.7859	0.059700
70.406	99.659	90.661	1.7773	0.097700
71.371	99.708	92.590	1.7732	0.060800
72.335	99.757	94.519	1.7890	0.068000
73.300	99.758	96.448	1.7893	0.093600
74.264	99.819	98.377	1.7951	0.069600
75.229	99.651	100.31	1.8050	0.099000
76.193	99.749	102.24	1.8095	0.094800
77.158	99.605	104.16	1.8263	0.10490
78.122	99.775	106.09	1.8051	0.18930
79.087	99.884	108.02	1.7788	0.12860
80.051	99.849	109.95	1.7909	0.12180
81.016	99.513	111.88	1.8007	0.12980
81.980	99.598	113.81	1.8070	0.13760
82.945	99.599	115.74	1.8099	0.14990
83.909	99.660	117.67	1.8160	0.14960
84.874	99.685	119.59	1.8197	0.17150
85.838	99.590	121.52	1.8215	0.17710
86.803	99.735	123.45	1.8213	0.19840
87.767	99.568	125.38	1.8189	0.20520
88.732	99.629	127.31	1.8174	0.22160
89.696	99.317	129.24	1.8121	0.23670
90.661	99.390	131.17	1.8050	0.24910
91.625	99.379	133.10	1.7939	0.26460
92.590	99.609	135.03	1.7844	0.26340
93.554	99.465	136.96	1.7767	0.27540
94.519	99.550	138.88	1.7680	0.27290
95.483	99.322	140.81	1.7637	0.28010
96.448	99.372	142.74	1.7569	0.28500
97.412	99.481	144.67	1.7530	0.28420
98.377	99.518	146.60	1.7483	0.29510
99.341	99.555	148.53	1.7453	0.29160
100.31	99.303	150.46	1.7411	0.30840
101.27	99.413	152.39	1.7352	0.30660
102.24	99.317	154.32	1.7317	0.31810
103.20	99.475	156.24	1.7220	0.32560
104.16	99.223	158.17	1.7179	0.32340
105.13	99.127	160.10	1.7120	0.33860
106.09	98.610	162.03	1.7026	0.34110
107.06	99.021	163.96	1.6931	0.34850
108.02	99.046	165.89	1.6843	0.34610
108.99	99.107	167.82	1.6777	0.34920
109.95	99.072	169.75	1.6723	0.34740
110.91	99.133	171.68	1.6692	0.34970
111.88	98.989	173.61	1.6648	0.35700
112.84	98.858	175.53	1.6596	0.35520
113.81	98.907	177.46	1.6539	0.36830
114.77	98.715	179.39	1.6511	0.35680
115.74	98.789	181.32	1.6505	0.37540
116.70	98.621	183.25	1.6425	0.38320
117.67	98.766	185.18	1.6346	0.38970
118.63	98.502	187.11	1.6250	0.39900
119.59	98.564	189.04	1.6153	0.40160
120.56	98.348	190.97	1.6044	0.41110
121.52	98.493	192.90	1.5937	0.41070
122.49	98.313	194.82	1.5830	0.41370
123.45	98.290	196.75	1.5732	0.41860
124.42	98.171	198.68	1.5639	0.41680
125.38	98.208	200.61	1.5539	0.42510
126.35	98.209	202.54	1.5427	0.42400
127.31	98.041	204.47	1.5317	0.42930
128.28	98.006	206.40	1.5212	0.42700
129.24	97.887	208.33	1.5095	0.43480
130.20	97.996	210.26	1.4970	0.43320
131.17	97.756	212.18	1.4830	0.43530
132.13	97.805	214.11	1.4693	0.43740
133.10	97.601	216.04	1.4544	0.43450
134.06	97.771	217.97	1.4392	0.43390
135.03	97.591	219.90	1.4239	0.42800
135.99	97.652	221.83	1.4086	0.42430
136.96	97.461	223.76	1.3928	0.41530
137.92	97.510	225.69	1.3812	0.40100
138.88	97.462	227.62	1.3716	0.39370
139.85	97.415	229.55	1.3620	0.38320
140.81	97.368	231.48	1.3532	0.37580
141.78	97.249	233.40	1.3443	0.36100
142.74	97.298	235.33	1.3399	0.35370
143.71	97.178	237.26	1.3318	0.34850
144.67	97.276	239.19	1.3245	0.33470
145.64	97.060	241.12	1.3192	0.32690
146.60	97.145	243.05	1.3134	0.31720
147.57	96.965	244.98	1.3072	0.30870
148.53	97.147	246.91	1.3026	0.29480
149.49	96.979	248.84	1.3004	0.28560
150.46	96.956	250.76	1.2955	0.27720
151.42	96.837	252.69	1.2935	0.26420
152.39	96.946	254.62	1.2918	0.25640
153.35	96.887	256.55	1.2913	0.24340
154.32	96.803	258.48	1.2912	0.23850
155.28	96.744	260.41	1.2895	0.23000
156.24	96.709	262.34	1.2883	0.22160
157.21	96.806	264.27	1.2875	0.21320
158.17	96.699	266.20	1.2878	0.20480
159.14	96.736	268.12	1.2862	0.19870
160.10	96.520	270.05	1.2869	0.18770
161.07	96.629	271.98	1.2867	0.18440
162.03	96.474	273.91	1.2857	0.17380
163.00	96.559	275.84	1.2863	0.16600
163.96	96.379	277.77	1.2872	0.15730
164.93	96.453	279.70	1.2890	0.14870
165.89	96.381	281.63	1.2909	0.14200
166.85	96.418	283.56	1.2936	0.13360
167.82	96.323	285.48	1.2953	0.12890
168.78	96.264	287.41	1.2977	0.12080
169.75	96.313	289.34	1.3004	0.11540
170.71	96.266	291.27	1.3030	0.10920
171.68	96.255	293.20	1.3056	0.10400
172.64	96.063	295.13	1.3073	0.099700
173.61	96.148	297.06	1.3095	0.092200
174.57	96.029	298.99	1.3118	0.088100
175.53	96.138	300.92	1.3136	0.081600
176.50	95.934	302.85	1.3166	0.074400
177.46	95.971	304.77	1.3197	0.068900
178.43	95.876	306.70	1.3234	0.062700
179.39	96.058	308.63	1.3267	0.058200
180.36	95.938	310.56	1.3312	0.049800
181.32	95.819	312.49	1.3358	0.047800
182.29	95.747	314.42	1.3403	0.040500
183.25	95.712	316.35	1.3451	0.038500
184.22	95.713	318.28	1.3490	0.033600
185.18	95.618	320.21	1.3535	0.029600
186.14	95.643	322.14	1.3580	0.025600
187.11	95.499	324.06	1.3629	0.021000
188.07	95.560	325.99	1.3676	0.018600
189.04	95.453	327.92	1.3726	0.013500
190.00	95.526	329.85	1.3779	0.011200
190.97	95.334	331.78	1.3832	0.0069000
191.93	95.371	333.71	1.3894	0.0033000
192.90	95.324	335.64	1.3955	0.0012000
193.86	95.385	337.57	1.4023	0.0000
194.82	95.278	339.50	1.4092	0.0000
195.79	95.231	341.42	1.4160	0.0000
196.75	95.208	343.35	1.4228	0.0000
197.72	95.221	345.28	1.4291	0.0000
198.68	95.210	347.21	1.4346	0.0000
199.65	95.078	349.14	1.4395	0.0000
200.61	95.103	351.07	1.4443	0.0010999
201.58	95.032	353.00	1.4484	0.0025001
202.54	95.105	354.93	1.4526	0.0027000
203.50	94.973	356.86	1.4567	0.0046999
204.47	95.035	358.79	1.4604	0.0053999
205.43	94.951	360.71	1.4643	0.0062000
206.40	95.049	362.64	1.4680	0.0075001
207.36	94.953	364.57	1.4721	0.0075999
208.33	94.954	366.50	1.4761	0.010100
209.29	94.919	368.43	1.4797	0.010700
210.26	94.968	370.36	1.4837	0.012500
211.22	94.969	372.29	1.4873	0.014900
212.18	94.946	374.22	1.4906	0.016600
213.15	94.959	376.15	1.4937	0.019500
214.11	94.924	378.08	1.4965	0.021200
215.08	94.997	380.00	1.4990	0.024000
216.04	94.962	381.93	1.5013	0.025700
217.01	95.035	383.86	1.5037	0.027900
217.97	94.976	385.79	1.5054	0.030600
218.94	95.073	387.72	1.5070	0.031600
219.90	95.050	389.65	1.5091	0.032700
220.87	95.148	391.58	1.5116	0.033700
221.83	95.100	393.51	1.5141	0.035700
222.79	95.162	395.44	1.5166	0.037200
223.76	95.211	397.36	1.5189	0.039300
224.72	95.296	399.29	1.5212	0.041800
225.69	95.369	401.22	1.5232	0.043800
226.65	95.358	403.15	1.5250	0.046800
227.62	95.443	405.08	1.5267	0.048200
228.58	95.469	407.01	1.5281	0.051700
229.55	95.554	408.94	1.5295	0.052600
230.51	95.531	410.87	1.5308	0.056000
231.48	95.628	412.80	1.5318	0.057400
232.44	95.653	414.72	1.5328	0.059300
233.40	95.787	416.65	1.5340	0.061100
234.37	95.776	418.58	1.5353	0.062400
235.33	95.849	420.51	1.5365	0.064700
236.30	95.850	422.44	1.5379	0.065500
237.26	95.899	424.37	1.5395	0.067800
238.23	95.972	426.30	1.5410	0.069500
239.19	96.046	428.23	1.5423	0.072200
240.15	96.095	430.16	1.5433	0.073900
241.12	96.120	432.09	1.5448	0.075600
242.08	96.205	434.02	1.5461	0.078700
243.05	96.218	435.94	1.5468	0.080400
244.01	96.327	437.87	1.5477	0.083500
244.98	96.304	439.80	1.5483	0.085100
245.94	96.414	441.73	1.5491	0.087200
246.91	96.451	443.66	1.5498	0.089300
247.87	96.488	445.59	1.5504	0.091400
248.84	96.537	447.52	1.5510	0.093500
249.80	96.574	449.45	1.5517	0.095000
250.76	96.623	451.38	1.5528	0.097000
251.73	96.709	453.30	1.5533	0.099100
252.69	96.758	455.23	1.5540	0.10200
253.66	96.759	457.16	1.5545	0.10350
254.62	96.832	459.09	1.5553	0.10540
255.59	96.857	461.02	1.5560	0.10830
256.55	96.967	462.95	1.5564	0.11030
257.52	96.943	464.88	1.5569	0.11310
258.48	97.005	466.81	1.5570	0.11550
259.44	96.994	468.74	1.5573	0.11740
260.41	97.091	470.67	1.5576	0.12060
261.37	97.116	472.59	1.5570	0.12210
262.34	97.177	474.52	1.5572	0.12490
263.30	97.190	476.45	1.5572	0.12630
264.27	97.264	478.38	1.5573	0.12910
265.23	97.313	480.31	1.5572	0.13090
266.20	97.350	482.24	1.5570	0.13370
267.16	97.399	484.17	1.5568	0.13550
268.12	97.412	486.10	1.5567	0.13780
269.09	97.521	488.03	1.5567	0.14050
270.05	97.534	489.95	1.5556	0.14280
271.02	97.596	491.88	1.5553	0.14500
271.98	97.560	493.81	1.5546	0.14730
272.95	97.658	495.74	1.5537	0.14960
273.91	97.683	497.67	1.5526	0.15190
274.88	97.768	499.60	1.5512	0.15380
275.84	97.769	501.53	1.5507	0.15380
276.81	97.806	503.46	1.5497	0.15790
277.77	97.868	505.39	1.5482	0.15850
278.73	97.941	507.31	1.5464	0.15920
279.70	97.966	509.24	1.5460	0.15960
280.66	97.967	511.17	1.5462	0.16000
281.63	98.040	513.10	1.5456	0.16370
282.59	98.053	515.03	1.5442	0.16420
283.56	98.138	516.96	1.5428	0.16630
284.52	98.115	518.89	1.5419	0.16500
285.48	98.189	520.82	1.5411	0.16720
286.45	98.190	522.75	1.5417	0.16370
287.41	98.287	524.68	1.5428	0.16940
288.38	98.288	526.60	1.5411	0.16950
289.34	98.349	528.53	1.5407	0.17180
290.31	98.374	530.46	1.5399	0.17180
291.27	98.423	532.39	1.5391	0.17400
292.24	98.460	534.32	1.5380	0.17400
293.20	98.485	536.25	1.5384	0.17250
294.17	98.535	538.18	1.5386	0.17600
295.13	98.536	540.11	1.5379	0.17600
296.09	98.621	542.04	1.5387	0.17620
297.06	98.634	543.96	1.5378	0.17960
298.02	98.719	545.89	1.5370	0.18000
298.99	98.684	547.82	1.5365	0.18010
299.95	98.757	549.75	1.5365	0.18040
300.92	98.770	551.68	1.5372	0.18040
301.88	98.868	553.61	1.5381	0.18230
302.85	98.869	555.54	1.5378	0.18550
303.81	98.918	557.47	1.5368	0.18590
304.77	98.943	559.40	1.5370	0.18570
305.74	99.004	561.33	1.5372	0.18760
306.70	99.029	563.26	1.5379	0.18780
307.67	99.018	565.18	1.5381	0.18970
308.63	99.091	567.11	1.5380	0.19320
309.60	99.116	569.04	1.5369	0.19340
310.56	99.214	570.97	1.5373	0.19320
311.53	99.167	572.90	1.5379	0.19520
312.49	99.240	574.83	1.5381	0.19700
313.46	99.253	576.76	1.5377	0.19890
314.42	99.350	578.69	1.5379	0.19890
315.38	99.339	580.62	1.5392	0.20080
316.35	99.376	582.54	1.5381	0.20440
317.31	99.377	584.47	1.5380	0.20460
318.28	99.451	586.40	1.5379	0.20640
319.24	99.500	588.33	1.5383	0.20650
320.21	99.513	590.26	1.5391	0.20860
321.17	99.562	592.19	1.5398	0.21050
322.14	99.575	594.12	1.5400	0.21400
323.10	99.660	596.05	1.5395	0.21620
324.06	99.649	597.98	1.5395	0.21840
325.03	99.722	599.90	1.5379	0.22060
325.99	99.687	601.83	1.5382	0.22090
326.96	99.785	603.76	1.5387	0.22290
327.92	99.773	605.69	1.5383	0.22640
328.89	99.847	607.62	1.5379	0.22700
329.85	99.812	609.55	1.5384	0.22880
330.82	99.861	611.48	1.5382	0.23270
331.78	99.886	613.41	1.5372	0.23450
332.74	99.923	615.34	1.5372	0.23510
333.71	99.948	617.27	1.5379	0.23860
334.67	99.925	619.19	1.5365	0.24060
335.64	99.986	621.12	1.5370	0.24240
336.60	99.987	623.05	1.5367	0.24600
337.57	100.05	624.98	1.5360	0.24800
338.53	99.989	626.91	1.5356	0.25000
339.50	100.06	628.84	1.5358	0.25200
340.46	100.03	630.77	1.5358	0.25550
341.42	100.09	632.70	1.5350	0.25920
342.39	100.04	634.63	1.5345	0.26160
343.35	100.08	636.55	1.5330	0.26410
344.32	100.04	638.48	1.5328	0.26780
345.28	100.07	640.41	1.5316	0.27050
346.25	100.05	642.34	1.5309	0.27300
347.21	100.03	644.27	1.5298	0.27700
348.18	100.04	646.20	1.5285	0.27950
349.14	100.02	648.13	1.5269	0.28390
350.11	100.04	650.06	1.5247	0.28640
351.07	99.987	651.99	1.5227	0.28880
352.03	100.03	653.92	1.5218	0.29070
353.00	99.959	655.84	1.5189	0.29440
353.96	100.01	657.77	1.5173	0.29620
354.93	99.955	659.70	1.5156	0.29800
355.89	99.996	661.63	1.5137	0.30070
356.86	99.915	663.56	1.5120	0.30160
357.82	99.943	665.49	1.5113	0.30270
358.79	99.899	667.42	1.5109	0.30540
359.75	99.915	669.35	1.5089	0.31040
360.71	99.883	671.28	1.5074	0.30910
361.68	99.863	673.21	1.5079	0.31260
362.64	99.855	675.13	1.5058	0.31490
363.61	99.835	677.06	1.5043	0.31680
364.57	99.851	678.99	1.5489	0.30970
365.54	99.783	680.44	1.4779	0.34140
366.50	99.799	682.37	1.5053	0.33720
367.47	99.743	684.30	1.4997	0.34030
368.43	99.783	686.23	1.4968	0.34270
369.40	99.715	688.15	1.4929	0.34540
370.36	99.743	690.08	1.4902	0.35090
371.32	99.675	692.01	1.4860	0.35370
372.29	99.691	693.94	1.4822	0.35640
373.25	99.647	695.87	1.4786	0.35900
374.22	99.651	697.80	1.4750	0.36160
375.18	99.607	699.73	1.4715	0.36430
376.15	99.587	701.66	1.4679	0.36690
377.11	99.579	703.59	1.4643	0.36960
378.08	99.547	705.52	1.4615	0.37210
379.04	99.551	707.44	1.4563	0.37510
380.00	99.482	709.37	1.4531	0.37760
380.97	99.511	711.30	1.4489	0.38050
381.93	99.442	713.23	1.4439	0.38350
382.90	99.470	715.16	1.4398	0.38320
383.86	99.390	717.09	1.4364	0.38580
384.83	99.406	719.02	1.4324	0.38850
385.79	99.326	720.95	1.4274	0.39160
386.76	99.330	722.88	1.4239	0.39110
387.72	99.298	724.80	1.4188	0.39420
388.68	99.302	726.73	1.4145	0.39710
389.65	99.270	728.66	1.4099	0.39690
390.61	99.250	730.59	1.4053	0.39980
391.58	99.242	732.52	1.4009	0.39960
392.54	99.186	734.45	1.3964	0.40260
393.51	99.190	736.38	1.3919	0.40230
394.47	99.133	738.31	1.3873	0.40530
395.44	99.150	740.24	1.3826	0.40510
396.40	99.081	742.17	1.3788	0.40790
397.36	99.097	744.09	1.3724	0.40830
398.33	99.017	746.02	1.3680	0.41120
399.29	99.033	747.95	1.3619	0.41140
400.26	98.977	749.88	1.3564	0.41150
401.22	98.981	751.81	1.3512	0.41150
402.19	98.913	753.74	1.3462	0.41150
403.15	98.905	755.67	1.3414	0.41140
404.12	98.873	757.60	1.3371	0.41110
405.08	98.865	759.53	1.3312	0.41450
406.05	98.833	761.46	1.3262	0.41120
407.01	98.776	763.38	1.3203	0.41140
407.97	98.781	765.31	1.3165	0.41110
408.94	98.748	767.24	1.3122	0.41080
409.90	98.752	769.17	1.3063	0.41420
410.87	98.660	771.10	1.3001	0.41130
411.83	98.676	773.03	1.2950	0.41130
412.80	98.620	774.96	1.2889	0.41160
413.76	98.648	776.89	1.2833	0.40850
414.72	98.568	778.82	1.2790	0.40830
415.69	98.560	780.74	1.2725	0.40540
416.65	98.516	782.67	1.2690	0.40500
417.62	98.520	784.60	1.2633	0.40510
418.58	98.476	786.53	1.2580	0.40200
419.55	98.432	788.46	1.2528	0.40200
420.51	98.412	790.39	1.2477	0.39880
421.48	98.379	792.32	1.2425	0.39880
422.44	98.383	794.25	1.2367	0.39570
423.41	98.315	796.18	1.2323	0.39230
424.37	98.319	798.11	1.2284	0.39200
425.33	98.251	800.03	1.2215	0.38920
426.30	98.267	801.96	1.2180	0.38560
427.26	98.187	803.89	1.2133	0.38550
428.23	98.191	805.82	1.2077	0.38240
429.19	98.123	807.75	1.2028	0.37910
430.16	98.139	809.68	1.1984	0.37570
431.12	98.095	811.61	1.1947	0.37220
432.09	98.087	813.54	1.1903	0.37200
433.05	98.030	815.47	1.1858	0.36860
434.02	97.998	817.39	1.1797	0.36560
434.98	97.978	819.32	1.1758	0.36210
435.94	97.946	821.25	1.1713	0.35870
436.91	97.926	823.18	1.1670	0.35530
437.87	97.858	825.11	1.1627	0.35190
438.84	97.850	827.04	1.1583	0.34850
439.80	97.806	828.97	1.1535	0.34520
440.77	97.810	830.90	1.1501	0.33840
441.73	97.742	832.83	1.1462	0.33810
442.70	97.734	834.76	1.1426	0.33130
443.66	97.677	836.68	1.1383	0.32790
444.62	97.669	838.61	1.1356	0.32420
445.59	97.613	840.54	1.1319	0.32060
446.55	97.593	842.47	1.1275	0.31730
447.52	97.549	844.40	1.1239	0.31060
448.48	97.529	846.33	1.1212	0.30680
449.45	97.497	848.26	1.1174	0.30330
450.41	97.453	850.19	1.1143	0.29660
451.38	97.433	852.12	1.1126	0.29270
452.34	97.376	854.04	1.1081	0.28940
453.30	97.368	855.97	1.1057	0.28250
454.27	97.300	857.90	1.1031	0.27880
455.23	97.280	859.83	1.1009	0.27200
456.20	97.224	861.76	1.0992	0.26820
457.16	97.228	863.69	1.0964	0.26460
458.13	97.172	865.62	1.0940	0.25790
459.09	97.164	867.55	1.0919	0.25420
460.06	97.108	869.48	1.0900	0.24740
461.02	97.076	871.41	1.0887	0.24360
461.98	97.031	873.33	1.0862	0.23700
462.95	97.011	875.26	1.0852	0.23320
463.91	96.967	877.19	1.0838	0.22650
464.88	96.923	879.12	1.0826	0.22270
465.84	96.891	881.05	1.0815	0.21610
466.81	96.847	882.98	1.0805	0.21230
467.77	96.839	884.91	1.0797	0.20570
468.74	96.783	886.84	1.0789	0.20200
469.70	96.751	888.77	1.0782	0.19530
470.67	96.682	890.70	1.0781	0.19170
471.63	96.686	892.62	1.0769	0.18510
472.59	96.630	894.55	1.0769	0.18150
473.56	96.598	896.48	1.0766	0.17500
474.52	96.542	898.41	1.0763	0.17140
475.49	96.534	900.34	1.0757	0.16500
476.45	96.490	902.27	1.0764	0.15850
477.42	96.458	904.20	1.0770	0.15490
478.38	96.402	906.13	1.0775	0.14850
479.35	96.369	908.06	1.0785	0.14500
480.31	96.337	909.98	1.0786	0.13870
481.27	96.281	911.91	1.0797	0.13530
482.24	96.249	913.84	1.0806	0.12910
483.20	96.193	915.77	1.0816	0.12560
484.17	96.185	917.70	1.0826	0.11950
485.13	96.129	919.63	1.0838	0.11620
486.10	96.109	921.56	1.0851	0.11010
487.06	96.040	923.49	1.0865	0.10680
488.03	96.020	925.42	1.0881	0.10090
488.99	95.964	927.35	1.0900	0.097600
489.95	95.944	929.27	1.0915	0.091800
490.92	95.888	931.20	1.0941	0.088600
491.88	95.868	933.13	1.0954	0.085500
492.85	95.824	935.06	1.0971	0.079800
493.81	95.792	936.99	1.0992	0.076700
494.78	95.760	938.92	1.1015	0.071100
495.74	95.715	940.85	1.1044	0.068100
496.71	95.683	942.78	1.1063	0.065100
497.67	95.639	944.71	1.1089	0.059700
498.64	95.619	946.63	1.1119	0.056800
499.60	95.575	948.56	1.1147	0.053900
500.56	95.535	950.49	1.1172	0.051100
501.53	95.559	952.42	1.1192	0.048300
502.49	95.551	954.35	1.1221	0.043000
503.46	95.432	956.28	1.1258	0.040300
504.42	95.474	958.21	1.1295	0.037700
505.39	95.404	960.14	1.1324	0.037400
506.35	95.391	962.07	1.1344	0.034700
507.31	95.371	964.00	1.1369	0.032100
508.28	95.408	965.92	1.1394	0.029500
509.24	95.344	967.85	1.1423	0.026900
510.21	95.330	969.78	1.1454	0.024400
511.17	95.317	971.71	1.1489	0.021800
512.14	95.253	973.64	1.1518	0.021700
513.10	95.196	975.57	1.1542	0.019200
514.07	95.126	977.50	1.1575	0.016700
515.03	95.169	979.43	1.1605	0.016600
516.00	95.149	981.36	1.1633	0.014200
516.96	95.097	983.28	1.1660	0.014000
517.92	95.128	985.21	1.1687	0.011600
518.89	95.120	987.14	1.1714	0.011500
519.85	94.901	989.07	1.1742	0.0091000
520.82	95.043	991.00	1.1773	0.0089999
521.78	95.079	992.93	1.1794	0.0089000
522.75	95.122	994.86	1.1820	0.0065000
523.71	94.952	996.79	1.1850	0.0064000
524.68	94.939	998.72	1.1876	0.0063000
525.64	94.937	1000.6	1.1894	0.0062000
526.60	94.923	1002.6	1.1914	0.0060000
527.57	94.910	1004.5	1.1934	0.0037000
528.53	94.840	1006.4	1.1961	0.0036000
529.50	94.789	1008.4	1.1986	0.0035000
530.46	94.825	1010.3	1.2006	0.0034000
531.43	94.818	1012.2	1.2025	0.0032001
532.39	94.748	1014.1	1.2042	0.0031000
533.36	94.790	1016.1	1.2059	0.0030000
534.32	94.733	1018.0	1.2071	0.0028000
535.29	94.725	1019.9	1.2088	0.00059998
536.25	94.756	1021.9	1.2113	0.00049996
537.21	94.648	1023.8	1.2132	0.00030005
538.18	94.634	1025.7	1.2149	0.00020003
539.14	94.583	1027.7	1.2163	0.00010002
540.11	94.619	1029.6	1.2182	0.0000
541.07	94.650	1031.5	1.2207	0.0000
542.04	94.592	1033.4	1.2228	0.0000
543.00	94.534	1035.4	1.2247	0.0000
543.96	94.477	1037.3	1.2264	0.0000
544.93	94.507	1039.2	1.2281	0.0000
545.89	94.450	1041.2	1.2297	0.0000
546.86	94.436	1043.1	1.2313	0.0000
547.82	94.429	1045.0	1.2328	0.0000
548.79	94.359	1046.9	1.2342	0.0000
549.75	94.401	1048.9	1.2357	0.0000
550.72	94.338	1050.8	1.2370	0.0000
551.68	94.380	1052.7	1.2384	0.0000
552.65	94.267	1054.7	1.2397	0.0000
553.61	94.303	1056.6	1.2410	0.0000
554.57	94.245	1058.5	1.2422	0.0000
555.54	94.188	1060.4	1.2434	0.0000
556.50	94.174	1062.4	1.2446	0.0000
557.47	94.161	1064.3	1.2457	0.0000
558.43	94.153	1066.2	1.2466	0.0000
559.40	94.146	1068.2	1.2483	0.0000
560.36	94.132	1070.1	1.2501	0.0000
561.33	94.068	1072.0	1.2508	0.0000
562.29	94.061	1073.9	1.2518	0.0000
563.26	94.041	1075.9	1.2529	0.0000
564.22	93.984	1077.8	1.2539	0.0000
565.18	93.964	1079.7	1.2549	0.0000
566.15	93.900	1081.7	1.2559	0.0000
567.11	93.837	1083.6	1.2569	0.0000
